wavelength / nm,EQE / %
300,0
334,2.55
361,12.9
382,29.5
396,41.2
419,51.7
467,63.2
503,75.3
543,91.9
614,95.6
667,96.9
748,95.8
811,93.3
872,90.5
937,84.7
972,77.2
992,69
1006,61.2
1017,53
1026,45.8
1037,38.8
1046,30.6
1061,23
1072,16
1092,7.52
1131,2.01
1174,0
1206,0
1236,0
1380,0
1500,0
